#Rx
# X(m), Y(m), Z(m), Distance(m), Power (dBm) Phase (deg)
1 751.175 639.756 39.8889 79.9675 -105.794 53.5503
2 791.084 403.08 37.5604 163.343 -128.05 11.0141
3 747.338 600.064 42.6977 40.0866 -98.6324 -157.033
4 674.969 670.822 40.9767 131.641 -132.543 -18.7457
5 760.635 457.344 38.454 103.774 -103.825 -27.8701
6 781.972 680.282 37.8963 125.631 -125.335 -5.95327
7 814.17 677.105 34.9767 135.712 -134.218 -119.172
8 741.229 428.045 39.2634 132.082 -135.215 32.3514
9 746.823 425.016 39.186 135.028 -129.026 73.0165
10 702.167 449.199 40.2975 119.177 -149.149 106.687
